File: data/compressive_strength.csv
Mix Name,Description,Mortar or Concrete,Material Source,Binder (kg/m3),Cement (kg/m3),Fly Ash (kg/m3),Slag (kg/m3),Clay0 (kg/m3),Clay1 (kg/m3),Clay2 (kg/m3),w/b,Water (kg/m3),MRWR (kg/m3),HRWR (kg/m3),HRWR (oz/cwt binder),VMA (oz/cwt),AE (oz/cwt),Fine Aggregate (kg/m3),Coarse Aggregates (kg/m3),Temp (C),Time,GWP,Strength1 (psi),Strength2 (psi),Strength3 (psi),Strength (Mean),Strength (Std),# of measurements,Cement replacement (ratio),Slump (in),Cost Factor
Mix 0,1_0_,Mortar,0,666.67,353.33,46.67,266.67,0,0,0,0.21,140,0,6.67,16,0,0,1833,0,22,1,321.57,5098,4960,4943,5000,85,3,0.47,0,576
Mix 1,1_1_,Mortar,0,666.67,214.67,220,232,0,0,0,0.24,159,0,4,10,0,0,1833,0,22,1,209.2,3295,3475,3550,3440,131,3,0.68,0,444.27
Mix 2,1_2_,Mortar,0,666.67,344,178.67,144,0,0,0,0.45,299,0,0,0,0,0,1833,0,22,1,284.69,1380,1478,1660,1506,142,3,0.48,0,494.93
Mix 3,1_3_,Mortar,0,666.67,212,214.67,240,0,0,0,0.26,175,0,0,0,0,0,1833,0,22,1,194.01,2883,3278,3183,3114,206,3,0.68,0,446.93
Mix 4,1_4_,Mortar,0,666.67,317.33,221.33,128,0,0,0,0.35,233,0,0,0,0,0,1833,0,22,1,263.93,3235,2885,2595,2905,320,3,0.52,0,464
Mix 5,1_5_,Mortar,0,666.67,454.67,158.67,53.33,0,0,0,0.23,155,0,4,10,0,0,1833,0,22,1,375.06,6978,6285,5575,6279,701,3,0.32,0,529.07
Mix 6,1_6_,Mortar,0,666.67,436,33.33,197.33,0,0,0,0.38,256,0,0,0,0,0,1833,0,22,1,355.1,3225,3570,3438,3411,174,3,0.35,0,600.53
Mix 7,1_7_,Mortar,0,666.67,318.67,52,296,0,0,0,0.48,317,0,0,0,0,0,1833,0,22,1,274.84,1608,1725,1645,1659,60,3,0.52,0,565.87
Mix 8,1_8_,Mortar,0,666.67,265.33,164,237.33,0,0,0,0.28,185,0,1.33,3,0,0,1833,0,22,1,237.52,3708,3393,3495,3532,161,3,0.6,0,488
Mix 9,2_0_,Mortar,0,666.67,529.6,0,137.07,0,0,0,0.41,276,0,0,0,0,0,1833,0,22,1,420.58,2995,3173,3653,3273,340,3,0.21,0,639.25
Mix 10,2_1_,Mortar,0,666.67,503.07,163.6,0,0,0,0,0.36,237,0,0,0,0,0,1833,0,22,1,393.12,4123,4270,3925,4106,173,3,0.25,0,535.79
Mix 11,2_2_,Mortar,0,666.67,495.2,0,171.47,0,0,0,0.45,297,0,0,0,0,0,1833,0,22,1,396.8,3025,3180,2975,3060,107,3,0.26,0,632.37
Mix 12,2_3_,Mortar,0,666.67,553.87,112.8,0,0,0,0,0.35,235,0,0,0,0,0,1833,0,22,1,430.5,4555,4025,4625,4402,328,3,0.17,0,576.43
Mix 13,2_4_,Mortar,0,666.67,333.6,0,333.07,0,0,0,0.4,265,0,0,0,0,0,1833,0,22,1,287.9,2320,2510,2065,2298,223,3,0.5,0,600.05
Mix 14,2_5_,Mortar,0,666.67,466.67,0,200,0,0,0,0.2,133,0,8.67,21,0,0,1833,0,22,1,408.54,9095,8013,5605,7571,1786,3,0.3,0,626.67
Mix 15,2_6_,Mortar,0,666.67,411.6,29.07,226,0,0,0,0.2,133,0,8.67,21,0,0,1833,0,22,1,369.69,6590,5788,5768,6048,469,3,0.38,0,598.21
Mix 16,2_7_,Mortar,0,666.67,362.93,42.93,260.8,0,0,0,0.2,133,0,8.67,21,0,0,1833,0,22,1,335.74,6295,6695,6115,6368,297,3,0.46,0,580.16
Mix 17,2_8_,Mortar,0,666.67,277.47,118,271.2,0,0,0,0.2,133,0,8.67,21,0,0,1833,0,22,1,273.23,5670,4885,4423,4993,631,3,0.58,0,518.03
Mix 18,3_0_,Mortar,0,666.67,200.67,172.53,293.47,0,0,0,0.25,167,0,3.33,8,0,0,1833,0,22,1,200.1,3035,3063,3218,3105,99,3,0.7,0,469.95
Mix 19,3_1_,Mortar,0,666.67,322.13,82.8,261.73,0,0,0,0.22,149,0,6.67,16,0,0,1833,0,22,1,298.65,5930,5988,5410,5776,318,3,0.52,0,548.08
Mix 20,3_2_,Mortar,0,666.67,293.33,73.33,300,0,0,0,0.2,133,0,8.67,21,0,0,1833,0,22,1,286.59,5008,4363,4178,4516,436,3,0.56,0,548
Mix 21,3_3_,Mortar,0,666.67,229.33,137.33,300,0,0,0,0.2,133,0,8.67,21,0,0,1833,0,22,1,239.68,4093,3250,3960,3768,453,3,0.66,0,496.8
Mix 22,3_4_,Mortar,0,666.67,395.33,45.2,226.13,0,0,0,0.2,133,0,8.67,21,0,0,1833,0,22,1,357.2,5943,6130,4888,5654,670,3,0.41,0,585.28
Mix 23,3_5_,Mortar,0,666.67,305.07,125.87,235.73,0,0,0,0.2,133,0,8.67,21,0,0,1833,0,22,1,291.83,4785,5168,4665,4873,263,3,0.54,0,518.83
Mix 24,3_6_,Mortar,0,666.67,408.13,108.53,150,0,0,0,0.21,139,0,8.67,21,0,0,1833,0,22,1,362.5,5460,4763,5503,5242,415,3,0.39,0,549.84
Mix 25,3_7_,Mortar,0,666.67,340.8,101.07,224.8,0,0,0,0.2,133,0,8.67,21,0,0,1833,0,22,1,317.6,4793,5140,4883,4939,180,3,0.49,0,540.85
Mix 26,3_8_,Mortar,0,533.47,272.67,80.93,179.87,0,0,0,0.25,133,0,8.67,26,0,0,1833,0,22,1,261.38,3093,2825,3090,3003,154,3,0.49,0,432.75
Mix 27,3S_0_3_3 variant,Mortar,0,666.67,229.33,137.33,300,0,0,0,0.3,200,0,0,0,0,0,1833,0,22,1,209.07,1983,2235,2305,2174,169,3,0.66,0,496.8
Mix 28,3S_1_3_3 variant,Mortar,0,666.67,229.33,300,137.33,0,0,0,0.3,200,0,0,0,0,0,1833,0,22,5,199.94,5035,5485,4388,4969,551,3,0.66,0,399.2
Mix 29,3S_2_3_0variant,Mortar,0,533.33,160.53,138,234.8,0,0,0,0.31,167,0,3.33,10,0,0,1967,0,22,5,162.86,3315,3423,3583,3440,135,3,0.7,0,375.97
Mix 30,3S_3_3_0variant,Mortar,0,800,240.8,207.07,352.13,0,0,0,0.21,167,0,3.33,7,0,0,1700,0,22,5,236.28,9275,7670,7355,8100,1030,3,0.7,0,563.92
Mix 31,C0_2_6 coldtemp,Mortar,0,668,412,29.33,226.67,0,0,0,0.2,133,0,8.67,21,0,0,1833,0,4.5,5,369.69,4963,7023,6433,6140,1061,3,0.38,0,599.2
Mix 32,C1_2_7 coldtemp,Mortar,0,666.67,362.67,42.67,261.33,0,0,0,0.2,133,0,8.67,21,0,0,1833,0,4.5,5,335.74,7015,6338,5510,6288,754,3,0.46,0,580.27
Mix 33,C2_2_8 coldtemp,Mortar,0,666.67,277.33,118.67,270.67,0,0,0,0.2,133,0,8.67,21,0,0,1833,0,4.5,5,273.23,4625,4565,3775,4322,474,3,0.58,0,517.6
Mix 34,C3_3_0 coldtemp,Mortar,0,666.67,201.33,172,293.33,0,0,0,0.25,167,0,3.33,8,0,0,1833,0,4.5,5,200.1,2953,3145,3190,3096,126,3,0.7,0,470.4
Mix 35,C4_3_3 coldtemp,Mortar,0,666.67,229.33,137.33,300,0,0,0,0.2,133,0,8.67,21,0,0,1833,0,4.5,5,239.68,4550,4129,5808,4829,874,3,0.66,0,496.8
Mix 36,C5_3_4 coldtemp,Mortar,0,668,396,45.33,226.67,0,0,0,0.2,133,0,8.67,21,0,0,1833,0,4.5,5,357.2,7403,6373,6995,6924,519,3,0.41,0,586.4
Mix 37,C6_3_7 coldtemp,Mortar,0,668,341.33,101.33,225.33,0,0,0,0.2,133,0,8.67,21,0,0,1833,0,4.5,5,317.6,6185,5575,5648,5803,333,3,0.49,0,541.87
Mix 38,4_0_,Mortar,0,400,400,0,0,0,0,0,0.2,80,0,10.67,43,0,0,2100,0,22,5,348.19,3808,2998,4178,3661,604,3,0,0,400
Mix 39,4_1_,Mortar,0,229.33,229.33,0,0,0,0,0,0.2,45,0,13.33,93,0,0,2271,0,22,5,228.71,1538,1220,1220,1326,184,3,0,0,229.33
Mix 40,4_2_,Mortar,0,209.33,122.67,32,54.67,0,0,0,0.2,43,0,10.67,82,0,0,2289,0,22,5,143.17,778,760,760,766,10,3,0.41,0,172.8
Mix 41,4_3_,Mortar,0,170.67,97.33,2.67,70.67,0,0,0,0.48,83,0,10.67,100,0,0,2329,0,22,5,123.97,505,613,493,537,66,3,0.43,0,154.4
Mix 42,4_4_,Mortar,0,476,314.67,112,49.33,0,0,0,0.24,116,0,10.67,36,0,0,2025,0,22,5,289.91,5315,5428,4700,5148,392,3,0.34,0,376.53
Mix 43,4_5_,Mortar,0,417.33,366.67,25.33,25.33,0,0,0,0.2,84,0,10.67,41,0,0,2083,0,22,5,325.21,5205,5005,4363,4858,440,3,0.12,0,392
Mix 44,4_6_,Mortar,0,144,66.67,68,9.33,0,0,0,0.31,45,0,13.33,148,0,0,2357,0,22,28,106.66,450,628,510,529,90,3,0.54,0,87.73
Mix 45,4_7_,Mortar,0,498.67,498.67,0,0,0,0,0,0.2,100,0,10.67,34,0,0,2001,0,22,28,422.64,8015,9528,7823,8455,934,3,0,0,498.67
Mix 46,4_8_,Mortar,0,189.33,160,13.33,16,0,0,0,0.34,64,0,10.67,90,0,0,2311,0,22,28,167.49,758,1005,773,845,139,3,0.15,0,175.47
Mix 47,4_9_,Mortar,0,489.33,334.67,104,50.67,0,0,0,0.2,99,0,10.67,35,0,0,2011,0,22,28,305.08,8438,9290,7610,8446,840,3,0.32,0,396
Mix 48,4_10_,Mortar,0,952,886.67,9.33,56,0,0,0,0.26,249,0,2.67,4,0,0,1549,0,22,28,694.58,8068,7890,8748,8235,453,3,0.07,0,933.33
Mix 49,4_11_,Mortar,0,978.67,894.67,25.33,58.67,0,0,0,0.25,240,0,2.67,4,0,0,1521,0,22,28,701.42,11155,10503,9685,10448,737,3,0.09,0,946.67
Mix 50,5_0_3S_3,Mortar,0,800,240.78,207.09,352.13,0,0,0,0.36,287,0,0,0,0,0,1700,0,22,28,224.36,6860,6543,7678,7027,586,3,0.7,0,563.9
Mix 51,5_1_3_3,Mortar,0,666.67,229.38,137.29,300,0,0,0,0.35,233,0,0,0,0,0,1833,0,22,28,209.07,7233,8388,7365,7662,632,3,0.66,0,496.84
Mix 52,5_2_4_4,Mortar,0,477.14,316,112.14,49,0,0,0,0.35,167,0,0,0,0,0,2025,0,22,28,253.73,6453,6058,5523,6011,467,3,0.34,0,377.63
Mix 53,5_3_4_4 inv,Mortar,0,477.33,49.33,112,316,0,0,0,0.35,167,0,0,0,0,0,2025,0,22,28,72.99,3800,3695,3508,3668,148,3,0.9,0,324.53
Mix 54,5_4_,Mortar,0,720,253.33,160,306.67,0,0,0,0.35,252,0,0,0,0,0,1947,0,22,28,228.88,7165,6585,6033,6594,566,3,0.65,0,530.67
Mix 55,5_5_,Mortar,0,666.67,229.33,164,273.33,0,0,0,0.35,233,0,0,0,0,0,2000,0,22,28,207.94,6863,6278,7255,6798,492,3,0.66,0,480.8
Mix 56,5_6_3_3 variant,Mortar,0,529.33,229.33,0,300,0,0,0,0.38,200,0,1.33,4,0,0,1967,0,22,28,210.23,7388,6500,6820,6903,449,3,0.57,0,469.33
Mix 57,5_7_3_3 variant,Mortar,0,673.33,240,0,433.33,0,0,0,0.36,240,0,0,0,0,0,1833,0,22,28,224.78,7005,7140,6518,6888,327,3,0.64,0,586.67
Mix 59,C8_HUMAN,Mortar,0,714.67,498.67,216,0,0,0,0,0.37,267,0,0,0,0,0,1785,0,4.5,1,391.47,565,548,470,528,51,3,0.3,0,541.87
Mix 60,6_0_,Mortar,0,1266.67,110.27,0,1156.4,0,0,0,0.35,443,0,0,0,0,0,1233,0,22,3,185.82,2065,2208,2045,2106,89,3,0.91,0,1035.39
Mix 61,6_1_,Mortar,0,580.4,168.53,14.53,397.33,0,0,0,0.35,203,0,0,0,0,0,1920,0,22,3,168.26,2505,2635,2590,2577,66,3,0.71,0,489.31
Mix 62,6_2,Mortar,0,1198.67,0,0,1198.67,0,0,0,0.24,286.67,0,0,0,0,0,1301.33,0,22,5,105.82,900,890,903,898,7,3,1,0,958.933
Mix 63,6_3,Mortar,0,570.13,129.47,2.67,438,0,0,0,0.4,225.33,0,0,0,0,0,1857.33,0,22,5,140.77,3688,3598,3608,3631,49,3,0.77,0,480.933
Mix 64,6_4,Mortar,0,725.33,49.33,44,632,0,0,0,0.35,253.33,0,0,0,0,0,1773.33,0,22,5,97.31,2870,2660,3020,2850,181,3,0.93,0,572.533
Mix 65,6_5,Mortar,0,989.33,194.67,13.33,781.33,0,0,0,0.35,345.33,0,0,0,0,0,1512,0,22,5,219.72,3345,3820,3900,3688,300,3,0.8,0,825.067
Mix 66,"100% 1L, w/b=0.3",Mortar,0,666.67,666.67,0,0,0,0,0,0.3,200,0,5.33,11,0,0,1833,0,22,5,530.24,7112,7165,7069,7115,48,3,0,0,666.67
Mix 67,"100% 1L, w/b=0.4",Mortar,0,666.67,666.67,0,0,0,0,0,0.4,267,0,2.67,6,0,0,1833,0,22,5,521.67,6343,5642,4815,5600,765,3,0,0,666.67
Mix 68,"100% 1L, w/b=0.5",Mortar,0,666.67,666.67,0,0,0,0,0,0.5,333,0,0,0,0,0,1833,0,22,5,513.07,2968,4158,3913,3680,628,3,0,0,666.67
Mix 68,"100% 1L, w/b=0.5",Mortar,0,666.67,666.67,0,0,0,0,0,0.5,333,0,0,0,0,0,1833,0,22,28,513.07,6093,5795,5763,5884,182,3,0,0,666.67
,,,,,,,,,,,,,,,,,,,,,,,,,,,,,,,
,,,,,,,,,,,,,,,,,,,,,,,,,,,,,,,
,,,,,,,,,,,,,,,,,,,,,,,,,,,,,,,
,,,,,,,,,,,,,,,,,,,,,,,,,,,,,,,
,,,,,,,,,,,,,,,,,,,,,,,,,,,,,,,
,,,,,,,,,,,,,,,,,,,,,,,,,,,,,,,
,,,,,,,,,,,,,,,,,,,,,,,,,,,,,,,
,,,,,,,,,,,,,,,,,,,,,,,,,,,,,,,
,,,,,,,,,,,,,,,,,,,,,,,,,,,,,,,
,,,,,,,,,,,,,,,,,,,,,,,,,,,,,,,
,,,,,,,,,,,,,,,,,,,,,,,,,,,,,,,
,,,,,,,,,,,,,,,,,,,,,,,,,,,,,,,
,,,,,,,,,,,,,,,,,,,,,,,,,,,,,,,
,,,,,,,,,,,,,,,,,,,,,,,,,,,,,,,
,,,,,,,,,,,,,,,,,,,,,,,,,,,,,,,
,,,,,,,,,,,,,,,,,,,,,,,,,,,,,,,
,,,,,,,,,,,,,,,,,,,,,,,,,,,,,,,
,,,,,,,,,,,,,,,,,,,,,,,,,,,,,,,
,,,,,,,,,,,,,,,,,,,,,,,,,,,,,,,
,,,,,,,,,,,,,,,,,,,,,,,,,,,,,,,
,,,,,,,,,,,,,,,,,,,,,,,,,,,,,,,
,,,,,,,,,,,,,,,,,,,,,,,,,,,,,,,
,,,,,,,,,,,,,,,,,,,,,,,,,,,,,,,
,,,,,,,,,,,,,,,,,,,,,,,,,,,,,,,
,,,,,,,,,,,,,,,,,,,,,,,,,,,,,,,
,,,,,,,,,,,,,,,,,,,,,,,,,,,,,,,
,,,,,,,,,,,,,,,,,,,,,,,,,,,,,,,
,,,,,,,,,,,,,,,,,,,,,,,,,,,,,,,
,,,,,,,,,,,,,,,,,,,,,,,,,,,,,,,
,,,,,,,,,,,,,,,,,,,,,,,,,,,,,,,
,,,,,,,,,,,,,,,,,,,,,,,,,,,,,,,
,,,,,,,,,,,,,,,,,,,,,,,,,,,,,,,
,,,,,,,,,,,,,,,,,,,,,,,,,,,,,,,
,,,,,,,,,,,,,,,,,,,,,,,,,,,,,,,
,,,,,,,,,,,,,,,,,,,,,,,,,,,,,,,
,,,,,,,,,,,,,,,,,,,,,,,,,,,,,,,
,,,,,,,,,,,,,,,,,,,,,,,,,,,,,,,
,,,,,,,,,,,,,,,,,,,,,,,,,,,,,,,
,,,,,,,,,,,,,,,,,,,,,,,,,,,,,,,
,,,,,,,,,,,,,,,,,,,,,,,,,,,,,,,
,,,,,,,,,,,,,,,,,,,,,,,,,,,,,,,
,,,,,,,,,,,,,,,,,,,,,,,,,,,,,,,
,,,,,,,,,,,,,,,,,,,,,,,,,,,,,,,
,,,,,,,,,,,,,,,,,,,,,,,,,,,,,,,
,,,,,,,,,,,,,,,,,,,,,,,,,,,,,,,
,,,,,,,,,,,,,,,,,,,,,,,,,,,,,,,
,,,,,,,,,,,,,,,,,,,,,,,,,,,,,,,
,,,,,,,,,,,,,,,,,,,,,,,,,,,,,,,
,,,,,,,,,,,,,,,,,,,,,,,,,,,,,,,
,,,,,,,,,,,,,,,,,,,,,,,,,,,,,,,
,,,,,,,,,,,,,,,,,,,,,,,,,,,,,,,
,,,,,,,,,,,,,,,,,,,,,,,,,,,,,,,
,,,,,,,,,,,,,,,,,,,,,,,,,,,,,,,
,,,,,,,,,,,,,,,,,,,,,,,,,,,,,,,
,,,,,,,,,,,,,,,,,,,,,,,,,,,,,,,
,,,,,,,,,,,,,,,,,,,,,,,,,,,,,,,
,,,,,,,,,,,,,,,,,,,,,,,,,,,,,,,
,,,,,,,,,,,,,,,,,,,,,,,,,,,,,,,
,,,,,,,,,,,,,,,,,,,,,,,,,,,,,,,
,,,,,,,,,,,,,,,,,,,,,,,,,,,,,,,
,,,,,,,,,,,,,,,,,,,,,,,,,,,,,,,
,,,,,,,,,,,,,,,,,,,,,,,,,,,,,,,
,,,,,,,,,,,,,,,,,,,,,,,,,,,,,,,
,,,,,,,,,,,,,,,,,,,,,,,,,,,,,,,
,,,,,,,,,,,,,,,,,,,,,,,,,,,,,,,
,,,,,,,,,,,,,,,,,,,,,,,,,,,,,,,
,,,,,,,,,,,,,,,,,,,,,,,,,,,,,,,
,,,,,,,,,,,,,,,,,,,,,,,,,,,,,,,
,,,,,,,,,,,,,,,,,,,,,,,,,,,,,,,
,,,,,,,,,,,,,,,,,,,,,,,,,,,,,,,
,,,,,,,,,,,,,,,,,,,,,,,,,,,,,,,
,,,,,,,,,,,,,,,,,,,,,,,,,,,,,,,
,,,,,,,,,,,,,,,,,,,,,,,,,,,,,,,
,,,,,,,,,,,,,,,,,,,,,,,,,,,,,,,
,,,,,,,,,,,,,,,,,,,,,,,,,,,,,,,
,,,,,,,,,,,,,,,,,,,,,,,,,,,,,,,
,,,,,,,,,,,,,,,,,,,,,,,,,,,,,,,
,,,,,,,,,,,,,,,,,,,,,,,,,,,,,,,
,,,,,,,,,,,,,,,,,,,,,,,,,,,,,,,
,,,,,,,,,,,,,,,,,,,,,,,,,,,,,,,
,,,,,,,,,,,,,,,,,,,,,,,,,,,,,,,
,,,,,,,,,,,,,,,,,,,,,,,,,,,,,,,
,,,,,,,,,,,,,,,,,,,,,,,,,,,,,,,
,,,,,,,,,,,,,,,,,,,,,,,,,,,,,,,
,,,,,,,,,,,,,,,,,,,,,,,,,,,,,,,
,,,,,,,,,,,,,,,,,,,,,,,,,,,,,,,
,,,,,,,,,,,,,,,,,,,,,,,,,,,,,,,
,,,,,,,,,,,,,,,,,,,,,,,,,,,,,,,
,,,,,,,,,,,,,,,,,,,,,,,,,,,,,,,
,,,,,,,,,,,,,,,,,,,,,,,,,,,,,,,
,,,,,,,,,,,,,,,,,,,,,,,,,,,,,,,
,,,,,,,,,,,,,,,,,,,,,,,,,,,,,,,
,,,,,,,,,,,,,,,,,,,,,,,,,,,,,,,
,,,,,,,,,,,,,,,,,,,,,,,,,,,,,,,
,,,,,,,,,,,,,,,,,,,,,,,,,,,,,,,
,,,,,,,,,,,,,,,,,,,,,,,,,,,,,,,
,,,,,,,,,,,,,,,,,,,,,,,,,,,,,,,
,,,,,,,,,,,,,,,,,,,,,,,,,,,,,,,
,,,,,,,,,,,,,,,,,,,,,,,,,,,,,,,
,,,,,,,,,,,,,,,,,,,,,,,,,,,,,,,
,,,,,,,,,,,,,,,,,,,,,,,,,,,,,,,
,,,,,,,,,,,,,,,,,,,,,,,,,,,,,,,
,,,,,,,,,,,,,,,,,,,,,,,,,,,,,,,
,,,,,,,,,,,,,,,,,,,,,,,,,,,,,,,
,,,,,,,,,,,,,,,,,,,,,,,,,,,,,,,
,,,,,,,,,,,,,,,,,,,,,,,,,,,,,,,
,,,,,,,,,,,,,,,,,,,,,,,,,,,,,,,
,,,,,,,,,,,,,,,,,,,,,,,,,,,,,,,
,,,,,,,,,,,,,,,,,,,,,,,,,,,,,,,
,,,,,,,,,,,,,,,,,,,,,,,,,,,,,,,
,,,,,,,,,,,,,,,,,,,,,,,,,,,,,,,
,,,,,,,,,,,,,,,,,,,,,,,,,,,,,,,
,,,,,,,,,,,,,,,,,,,,,,,,,,,,,,,
,,,,,,,,,,,,,,,,,,,,,,,,,,,,,,,
,,,,,,,,,,,,,,,,,,,,,,,,,,,,,,,
,,,,,,,,,,,,,,,,,,,,,,,,,,,,,,,
,,,,,,,,,,,,,,,,,,,,,,,,,,,,,,,
,,,,,,,,,,,,,,,,,,,,,,,,,,,,,,,
,,,,,,,,,,,,,,,,,,,,,,,,,,,,,,,
,,,,,,,,,,,,,,,,,,,,,,,,,,,,,,,
,,,,,,,,,,,,,,,,,,,,,,,,,,,,,,,
,,,,,,,,,,,,,,,,,,,,,,,,,,,,,,,
,,,,,,,,,,,,,,,,,,,,,,,,,,,,,,,
,,,,,,,,,,,,,,,,,,,,,,,,,,,,,,,
,,,,,,,,,,,,,,,,,,,,,,,,,,,,,,,
,,,,,,,,,,,,,,,,,,,,,,,,,,,,,,,
,,,,,,,,,,,,,,,,,,,,,,,,,,,,,,,
,,,,,,,,,,,,,,,,,,,,,,,,,,,,,,,
,,,,,,,,,,,,,,,,,,,,,,,,,,,,,,,
,,,,,,,,,,,,,,,,,,,,,,,,,,,,,,,
,,,,,,,,,,,,,,,,,,,,,,,,,,,,,,,
,,,,,,,,,,,,,,,,,,,,,,,,,,,,,,,
,,,,,,,,,,,,,,,,,,,,,,,,,,,,,,,
,,,,,,,,,,,,,,,,,,,,,,,,,,,,,,,
,,,,,,,,,,,,,,,,,,,,,,,,,,,,,,,
,,,,,,,,,,,,,,,,,,,,,,,,,,,,,,,
,,,,,,,,,,,,,,,,,,,,,,,,,,,,,,,
,,,,,,,,,,,,,,,,,,,,,,,,,,,,,,,
,,,,,,,,,,,,,,,,,,,,,,,,,,,,,,,
,,,,,,,,,,,,,,,,,,,,,,,,,,,,,,,
,,,,,,,,,,,,,,,,,,,,,,,,,,,,,,,
,,,,,,,,,,,,,,,,,,,,,,,,,,,,,,,
,,,,,,,,,,,,,,,,,,,,,,,,,,,,,,,
,,,,,,,,,,,,,,,,,,,,,,,,,,,,,,,
,,,,,,,,,,,,,,,,,,,,,,,,,,,,,,,
,,,,,,,,,,,,,,,,,,,,,,,,,,,,,,,
,,,,,,,,,,,,,,,,,,,,,,,,,,,,,,,
,,,,,,,,,,,,,,,,,,,,,,,,,,,,,,,
,,,,,,,,,,,,,,,,,,,,,,,,,,,,,,,
,,,,,,,,,,,,,,,,,,,,,,,,,,,,,,,
,,,,,,,,,,,,,,,,,,,,,,,,,,,,,,,
,,,,,,,,,,,,,,,,,,,,,,,,,,,,,,,
,,,,,,,,,,,,,,,,,,,,,,,,,,,,,,,
,,,,,,,,,,,,,,,,,,,,,,,,,,,,,,,
,,,,,,,,,,,,,,,,,,,,,,,,,,,,,,,
,,,,,,,,,,,,,,,,,,,,,,,,,,,,,,,
,,,,,,,,,,,,,,,,,,,,,,,,,,,,,,,
,,,,,,,,,,,,,,,,,,,,,,,,,,,,,,,
,,,,,,,,,,,,,,,,,,,,,,,,,,,,,,,
,,,,,,,,,,,,,,,,,,,,,,,,,,,,,,,
,,,,,,,,,,,,,,,,,,,,,,,,,,,,,,,
,,,,,,,,,,,,,,,,,,,,,,,,,,,,,,,
,,,,,,,,,,,,,,,,,,,,,,,,,,,,,,,
,,,,,,,,,,,,,,,,,,,,,,,,,,,,,,,
,,,,,,,,,,,,,,,,,,,,,,,,,,,,,,,
,,,,,,,,,,,,,,,,,,,,,,,,,,,,,,,
,,,,,,,,,,,,,,,,,,,,,,,,,,,,,,,
,,,,,,,,,,,,,,,,,,,,,,,,,,,,,,,
,,,,,,,,,,,,,,,,,,,,,,,,,,,,,,,
,,,,,,,,,,,,,,,,,,,,,,,,,,,,,,,
,,,,,,,,,,,,,,,,,,,,,,,,,,,,,,,
,,,,,,,,,,,,,,,,,,,,,,,,,,,,,,,
,,,,,,,,,,,,,,,,,,,,,,,,,,,,,,,
,,,,,,,,,,,,,,,,,,,,,,,,,,,,,,,
,,,,,,,,,,,,,,,,,,,,,,,,,,,,,,,
,,,,,,,,,,,,,,,,,,,,,,,,,,,,,,,
,,,,,,,,,,,,,,,,,,,,,,,,,,,,,,,
,,,,,,,,,,,,,,,,,,,,,,,,,,,,,,,
,,,,,,,,,,,,,,,,,,,,,,,,,,,,,,,
,,,,,,,,,,,,,,,,,,,,,,,,,,,,,,,
,,,,,,,,,,,,,,,,,,,,,,,,,,,,,,,
,,,,,,,,,,,,,,,,,,,,,,,,,,,,,,,
,,,,,,,,,,,,,,,,,,,,,,,,,,,,,,,
,,,,,,,,,,,,,,,,,,,,,,,,,,,,,,,
,,,,,,,,,,,,,,,,,,,,,,,,,,,,,,,
,,,,,,,,,,,,,,,,,,,,,,,,,,,,,,,
,,,,,,,,,,,,,,,,,,,,,,,,,,,,,,,
,,,,,,,,,,,,,,,,,,,,,,,,,,,,,,,
,,,,,,,,,,,,,,,,,,,,,,,,,,,,,,,
,,,,,,,,,,,,,,,,,,,,,,,,,,,,,,,
,,,,,,,,,,,,,,,,,,,,,,,,,,,,,,,
,,,,,,,,,,,,,,,,,,,,,,,,,,,,,,,
,,,,,,,,,,,,,,,,,,,,,,,,,,,,,,,
,,,,,,,,,,,,,,,,,,,,,,,,,,,,,,,
,,,,,,,,,,,,,,,,,,,,,,,,,,,,,,,
,,,,,,,,,,,,,,,,,,,,,,,,,,,,,,,
,,,,,,,,,,,,,,,,,,,,,,,,,,,,,,,
,,,,,,,,,,,,,,,,,,,,,,,,,,,,,,,
,,,,,,,,,,,,,,,,,,,,,,,,,,,,,,,
,,,,,,,,,,,,,,,,,,,,,,,,,,,,,,,
,,,,,,,,,,,,,,,,,,,,,,,,,,,,,,,
,,,,,,,,,,,,,,,,,,,,,,,,,,,,,,,
,,,,,,,,,,,,,,,,,,,,,,,,,,,,,,,
,,,,,,,,,,,,,,,,,,,,,,,,,,,,,,,
,,,,,,,,,,,,,,,,,,,,,,,,,,,,,,,
,,,,,,,,,,,,,,,,,,,,,,,,,,,,,,,
,,,,,,,,,,,,,,,,,,,,,,,,,,,,,,,
,,,,,,,,,,,,,,,,,,,,,,,,,,,,,,,
,,,,,,,,,,,,,,,,,,,,,,,,,,,,,,,
,,,,,,,,,,,,,,,,,,,,,,,,,,,,,,,
,,,,,,,,,,,,,,,,,,,,,,,,,,,,,,,
,,,,,,,,,,,,,,,,,,,,,,,,,,,,,,,
,,,,,,,,,,,,,,,,,,,,,,,,,,,,,,,
,,,,,,,,,,,,,,,,,,,,,,,,,,,,,,,
,,,,,,,,,,,,,,,,,,,,,,,,,,,,,,,
,,,,,,,,,,,,,,,,,,,,,,,,,,,,,,,
,,,,,,,,,,,,,,,,,,,,,,,,,,,,,,,
,,,,,,,,,,,,,,,,,,,,,,,,,,,,,,,
,,,,,,,,,,,,,,,,,,,,,,,,,,,,,,,
,,,,,,,,,,,,,,,,,,,,,,,,,,,,,,,
,,,,,,,,,,,,,,,,,,,,,,,,,,,,,,,
,,,,,,,,,,,,,,,,,,,,,,,,,,,,,,,
,,,,,,,,,,,,,,,,,,,,,,,,,,,,,,,
,,,,,,,,,,,,,,,,,,,,,,,,,,,,,,,
,,,,,,,,,,,,,,,,,,,,,,,,,,,,,,,
,,,,,,,,,,,,,,,,,,,,,,,,,,,,,,,
,,,,,,,,,,,,,,,,,,,,,,,,,,,,,,,
,,,,,,,,,,,,,,,,,,,,,,,,,,,,,,,
,,,,,,,,,,,,,,,,,,,,,,,,,,,,,,,
,,,,,,,,,,,,,,,,,,,,,,,,,,,,,,,
,,,,,,,,,,,,,,,,,,,,,,,,,,,,,,,
,,,,,,,,,,,,,,,,,,,,,,,,,,,,,,,
,,,,,,,,,,,,,,,,,,,,,,,,,,,,,,,
,,,,,,,,,,,,,,,,,,,,,,,,,,,,,,,
,,,,,,,,,,,,,,,,,,,,,,,,,,,,,,,
,,,,,,,,,,,,,,,,,,,,,,,,,,,,,,,
,,,,,,,,,,,,,,,,,,,,,,,,,,,,,,,
,,,,,,,,,,,,,,,,,,,,,,,,,,,,,,,
,,,,,,,,,,,,,,,,,,,,,,,,,,,,,,,
,,,,,,,,,,,,,,,,,,,,,,,,,,,,,,,
,,,,,,,,,,,,,,,,,,,,,,,,,,,,,,,
,,,,,,,,,,,,,,,,,,,,,,,,,,,,,,,
,,,,,,,,,,,,,,,,,,,,,,,,,,,,,,,
,,,,,,,,,,,,,,,,,,,,,,,,,,,,,,,
,,,,,,,,,,,,,,,,,,,,,,,,,,,,,,,
,,,,,,,,,,,,,,,,,,,,,,,,,,,,,,,
,,,,,,,,,,,,,,,,,,,,,,,,,,,,,,,
,,,,,,,,,,,,,,,,,,,,,,,,,,,,,,,
,,,,,,,,,,,,,,,,,,,,,,,,,,,,,,,
,,,,,,,,,,,,,,,,,,,,,,,,,,,,,,,
,,,,,,,,,,,,,,,,,,,,,,,,,,,,,,,
,,,,,,,,,,,,,,,,,,,,,,,,,,,,,,,
,,,,,,,,,,,,,,,,,,,,,,,,,,,,,,,
,,,,,,,,,,,,,,,,,,,,,,,,,,,,,,,
,,,,,,,,,,,,,,,,,,,,,,,,,,,,,,,
,,,,,,,,,,,,,,,,,,,,,,,,,,,,,,,
,,,,,,,,,,,,,,,,,,,,,,,,,,,,,,,
,,,,,,,,,,,,,,,,,,,,,,,,,,,,,,,
,,,,,,,,,,,,,,,,,,,,,,,,,,,,,,,
,,,,,,,,,,,,,,,,,,,,,,,,,,,,,,,
,,,,,,,,,,,,,,,,,,,,,,,,,,,,,,,
,,,,,,,,,,,,,,,,,,,,,,,,,,,,,,,
,,,,,,,,,,,,,,,,,,,,,,,,,,,,,,,
,,,,,,,,,,,,,,,,,,,,,,,,,,,,,,,
,,,,,,,,,,,,,,,,,,,,,,,,,,,,,,,
,,,,,,,,,,,,,,,,,,,,,,,,,,,,,,,
,,,,,,,,,,,,,,,,,,,,,,,,,,,,,,,
,,,,,,,,,,,,,,,,,,,,,,,,,,,,,,,
,,,,,,,,,,,,,,,,,,,,,,,,,,,,,,,
,,,,,,,,,,,,,,,,,,,,,,,,,,,,,,,
,,,,,,,,,,,,,,,,,,,,,,,,,,,,,,,
,,,,,,,,,,,,,,,,,,,,,,,,,,,,,,,
,,,,,,,,,,,,,,,,,,,,,,,,,,,,,,,
,,,,,,,,,,,,,,,,,,,,,,,,,,,,,,,
,,,,,,,,,,,,,,,,,,,,,,,,,,,,,,,
,,,,,,,,,,,,,,,,,,,,,,,,,,,,,,,
,,,,,,,,,,,,,,,,,,,,,,,,,,,,,,,
,,,,,,,,,,,,,,,,,,,,,,,,,,,,,,,
,,,,,,,,,,,,,,,,,,,,,,,,,,,,,,,
,,,,,,,,,,,,,,,,,,,,,,,,,,,,,,,
,,,,,,,,,,,,,,,,,,,,,,,,,,,,,,,
,,,,,,,,,,,,,,,,,,,,,,,,,,,,,,,
,,,,,,,,,,,,,,,,,,,,,,,,,,,,,,,
,,,,,,,,,,,,,,,,,,,,,,,,,,,,,,,
,,,,,,,,,,,,,,,,,,,,,,,,,,,,,,,
,,,,,,,,,,,,,,,,,,,,,,,,,,,,,,,
,,,,,,,,,,,,,,,,,,,,,,,,,,,,,,,
,,,,,,,,,,,,,,,,,,,,,,,,,,,,,,,
,,,,,,,,,,,,,,,,,,,,,,,,,,,,,,,
,,,,,,,,,,,,,,,,,,,,,,,,,,,,,,,
,,,,,,,,,,,,,,,,,,,,,,,,,,,,,,,
,,,,,,,,,,,,,,,,,,,,,,,,,,,,,,,
,,,,,,,,,,,,,,,,,,,,,,,,,,,,,,,
,,,,,,,,,,,,,,,,,,,,,,,,,,,,,,,
,,,,,,,,,,,,,,,,,,,,,,,,,,,,,,,
,,,,,,,,,,,,,,,,,,,,,,,,,,,,,,,
,,,,,,,,,,,,,,,,,,,,,,,,,,,,,,,
,,,,,,,,,,,,,,,,,,,,,,,,,,,,,,,
,,,,,,,,,,,,,,,,,,,,,,,,,,,,,,,
,,,,,,,,,,,,,,,,,,,,,,,,,,,,,,,
,,,,,,,,,,,,,,,,,,,,,,,,,,,,,,,
,,,,,,,,,,,,,,,,,,,,,,,,,,,,,,,
,,,,,,,,,,,,,,,,,,,,,,,,,,,,,,,
,,,,,,,,,,,,,,,,,,,,,,,,,,,,,,,
,,,,,,,,,,,,,,,,,,,,,,,,,,,,,,,
,,,,,,,,,,,,,,,,,,,,,,,,,,,,,,,
,,,,,,,,,,,,,,,,,,,,,,,,,,,,,,,
,,,,,,,,,,,,,,,,,,,,,,,,,,,,,,,
,,,,,,,,,,,,,,,,,,,,,,,,,,,,,,,
,,,,,,,,,,,,,,,,,,,,,,,,,,,,,,,
,,,,,,,,,,,,,,,,,,,,,,,,,,,,,,,
,,,,,,,,,,,,,,,,,,,,,,,,,,,,,,,
,,,,,,,,,,,,,,,,,,,,,,,,,,,,,,,
,,,,,,,,,,,,,,,,,,,,,,,,,,,,,,,
,,,,,,,,,,,,,,,,,,,,,,,,,,,,,,,
,,,,,,,,,,,,,,,,,,,,,,,,,,,,,,,
,,,,,,,,,,,,,,,,,,,,,,,,,,,,,,,
,,,,,,,,,,,,,,,,,,,,,,,,,,,,,,,
,,,,,,,,,,,,,,,,,,,,,,,,,,,,,,,
,,,,,,,,,,,,,,,,,,,,,,,,,,,,,,,