File: data/meta_mortar_proposal_April2023.csv
,Cement,Fly Ash,Slag,Water,HRWR,Fine Aggregate
0,220.008,54.9916,225.0,100.0,2.11111,1375.0
1,172.035,102.965,225.0,100.0,2.11111,1375.0
2,150.49,129.432,220.079,124.876,2.11111,1375.0
3,228.788,94.39263,176.819,100.0,2.11111,1375.0
4,241.596,62.0742,196.329,112.004,2.11111,1375.0
5,306.095,81.44597,112.459,104.18,2.11111,1375.0
6,255.575,75.83458,168.59,100.0,2.11111,1375.0
7,249.72,78.3558,171.924,100.0,2.11111,1375.0
8,296.486,33.9223,169.592,100.0,2.11111,1375.0