File: data/meta_mortar_proposal_Jan2023.csv
,Cement,Fly Ash,Slag,Water,Fine Aggregate
0,265.009,35.4298,199.561,104.782,1375.0
1,161.29,164.9139,173.796,119.387,1375.0
2,258.113,134.068,107.82,224.294,1375.0
3,238.022,165.92,96.05734,131.0472,1375.0
4,159.429,160.605,179.965,175.091,1375.0
5,341.1126,118.873,40.0148,116.222,1375.0
6,327.147,24.609,148.244,191.856,1375.0
7,239.121,38.8618,222.017,238.449,1375.0
8,199.298,123.165,177.537,139.335,1375.0