File: data/meta_cold_mortar_proposal_June2023.csv
,Cement,Fly Ash,Slag,Water,HRWR,Fine Aggregate
0,308.6762,21.81095,169.513,100.0,6.5,1375.0
1,272.203,32.20387,195.5936,100.0,6.5,1375.0
2,208.114,88.50898,203.377,100.0,6.5,1375.0
3,150.5,129.4,220.1,124.9,2.5,1375.0
4,172.0,103.0,225.0,100.0,6.5,1375.0
5,296.5,33.9,169.6,100.0,6.5,1375.0
6,255.6,75.8,168.6,100.0,6.5,1375.0