File: data/meta_mortar_proposal_August2023.csv
,Cement,Fly Ash,Slag,Water,HRWR,Fine Aggregate
0,82.65986,7.896844e-11,867.34,332.5,4.27907,925.0
1,126.401,10.8505,297.8041,152.27,4.27907,1439.94
2,0.004525815,1.94778e-10,899.0777,314.679,4.27907,975.9177
3,97.13802,2.29421,382.55,168.694,4.27907,1393.02
4,37.159,32.9537,473.9207,190.412,4.27907,1330.97
5,145.5541,10.0576,585.658,259.4444,4.27907,1133.73