File: data/meta_concrete_proposal_jan2023.csv
Id,Cement,Fly Ash,Slag,Water,HRWR,Coarse Aggregate,Fine Aggregate
0,501.71,146.304,246.832,267.979,67.0127,1525.23,1147.23
1,593.5597,135.217,263.0925,278.8651,81.12456,1109.65,1488.99
2,316.055,254.494,350.074,319.662,91.68253,1435.6,883.353
3,331.8604,230.625,157.502,351.349,55.8386,1050.1,1457.695
4,457.2594,184.1762,314.369,287.6416,21.50765,1592.74,1355.04
5,417.266,205.241,253.894,288.676,66.06502,1156.4,1348.33
6,441.708,40.2317,287.833,309.3556,1.63411,1484.33,1401.3
7,389.762,222.625,19.5277,128.973,2.780941,1643.6,1293.05
8,329.964,237.262,120.091,146.011,13.7052,1447.24,1543.01