File: data/meta_mortar_proposal_July2023.csv
,Cement,Fly Ash,Slag,Water,HRWR,Fine Aggregate
0,321.172,0.0,0.0,20.0,3.37037,1553.83
1,171.6308,14.08038,0.0340229,20.0,3.37037,1689.25
2,270.852,4.52802,45.9285,20.0,3.37037,1553.69
3,427.8423,98.85646,233.0352,20.0,3.37037,1115.27
4,82.6698,136.3702,68.35949,20.0,3.37037,1587.6
5,375.053,20.4097,154.313,20.0,3.37037,1325.22
6,40.92946,193.895,149.057,40.8563,3.37037,1491.12
7,72.25656,54.3151,51.43225,21.1849,3.37037,1697
8,192.008,13.24406,157.899,20.8563,3.37037,1511.85
9,130.321,120.417,80.78552,24.4277,3.37037,1543.48
10,586.8987,144.62,132.8451,24.1043,3.37037,1010.64
11,528.6626,319.04,35.8971,24.7215,3.37037,991.4